# histogram for class 1
#  domain: 3.953687  5.572140
#  entropy: 7.31914
#  bin centers     counts
  3.953687       1.000000
  3.961820       0.000000
  3.969953       1.323578
  3.978086       1.187322
  3.986219       5.016981
  3.994352       9.056246
  4.002485       7.963876
  4.010617       11.869132
  4.018750       15.778283
  4.026883       27.175305
  4.035016       40.668708
  4.043149       63.678031
  4.051282       71.677980
  4.059415       78.327118
  4.067548       118.769393
  4.075681       156.123880
  4.083814       190.877754
  4.091947       190.678890
  4.100080       182.261133
  4.108213       209.434054
  4.116346       239.338110
  4.124478       273.306446
  4.132611       248.435622
  4.140744       241.918614
  4.148877       241.715833
  4.157010       268.494905
  4.165143       248.909574
  4.173276       287.338687
  4.181409       271.444234
  4.189542       259.437803
  4.197675       241.856905
  4.205808       284.774818
  4.213941       282.355507
  4.222074       344.130775
  4.230207       280.813492
  4.238339       269.210785
  4.246472       310.192769
  4.254605       348.263765
  4.262738       376.450794
  4.270871       371.597926
  4.279004       344.422363
  4.287137       324.508695
  4.295270       376.735787
  4.303403       402.266638
  4.311536       391.227611
  4.319669       358.156245
  4.327802       364.224337
  4.335935       361.450663
  4.344068       356.769204
  4.352200       388.952700
  4.360333       376.375729
  4.368466       353.158716
  4.376599       364.090694
  4.384732       376.102013
  4.392865       409.120634
  4.400998       403.553487
  4.409131       373.886284
  4.417264       356.556633
  4.425397       394.665270
  4.433530       426.984213
  4.441663       381.419649
  4.449796       418.415858
  4.457929       441.655518
  4.466061       432.629228
  4.474194       371.017037
  4.482327       388.286626
  4.490460       417.473356
  4.498593       411.202288
  4.506726       387.509838
  4.514859       350.531836
  4.522992       340.018551
  4.531125       355.888628
  4.539258       338.017798
  4.547391       314.043111
  4.555524       310.832996
  4.563657       324.826175
  4.571790       325.612307
  4.579922       339.402099
  4.588055       330.535731
  4.596188       353.242742
  4.604321       324.887592
  4.612454       304.482338
  4.620587       303.238883
  4.628720       282.046353
  4.636853       283.896726
  4.644986       269.458052
  4.653119       280.667696
  4.661252       269.931001
  4.669385       260.143152
  4.677518       282.795870
  4.685651       271.644136
  4.693783       248.561993
  4.701916       231.228389
  4.710049       261.606477
  4.718182       265.200072
  4.726315       239.882072
  4.734448       233.753416
  4.742581       287.874304
  4.750714       255.400845
  4.758847       273.275896
  4.766980       286.438131
  4.775113       277.433354
  4.783246       277.441466
  4.791379       261.034367
  4.799512       268.837906
  4.807644       294.167212
  4.815777       273.660594
  4.823910       253.275338
  4.832043       267.202787
  4.840176       282.601726
  4.848309       311.560080
  4.856442       297.528948
  4.864575       344.289656
  4.872708       345.516920
  4.880841       349.016431
  4.888974       353.092273
  4.897107       384.793061
  4.905240       406.007379
  4.913373       425.977300
  4.921505       460.674899
  4.929638       464.497791
  4.937771       428.667623
  4.945904       449.451761
  4.954037       470.353343
  4.962170       441.696381
  4.970303       430.216458
  4.978436       391.529387
  4.986569       374.978122
  4.994702       331.753989
  5.002835       312.970825
  5.010968       283.884057
  5.019101       216.001700
  5.027234       193.217511
  5.035366       200.728468
  5.043499       173.074480
  5.051632       174.271496
  5.059765       154.346342
  5.067898       149.978837
  5.076031       129.348597
  5.084164       109.254824
  5.092297       117.953153
  5.100430       103.964883
  5.108563       112.164802
  5.116696       97.554327
  5.124829       98.138528
  5.132962       107.322743
  5.141095       115.399324
  5.149227       117.007882
  5.157360       105.201887
  5.165493       116.620927
  5.173626       106.034697
  5.181759       116.660505
  5.189892       131.240901
  5.198025       119.659906
  5.206158       121.781624
  5.214291       129.771307
  5.222424       117.534562
  5.230557       128.325280
  5.238690       126.645498
  5.246823       135.234304
  5.254956       137.151866
  5.263088       143.319978
  5.271221       132.768582
  5.279354       136.691794
  5.287487       134.322386
  5.295620       112.834761
  5.303753       117.718346
  5.311886       135.824328
  5.320019       126.284368
  5.328152       117.724119
  5.336285       125.519425
  5.344418       108.073286
  5.352551       106.929430
  5.360684       94.758532
  5.368817       92.949955
  5.376949       92.913844
  5.385082       80.278258
  5.393215       77.985479
  5.401348       69.502092
  5.409481       62.450073
  5.417614       60.956249
  5.425747       55.537871
  5.433880       50.032756
  5.442013       43.730498
  5.450146       52.271958
  5.458279       35.273943
  5.466412       25.482926
  5.474545       23.239845
  5.482678       12.853433
  5.490810       21.325219
  5.498943       17.857806
  5.507076       24.481537
  5.515209       19.550093
  5.523342       10.205143
  5.531475       7.456795
  5.539608       5.213277
  5.547741       3.923600
  5.555874       2.017701
  5.564007       0.377463
  5.572140       1.622537
